Raman Shift ; Dark Subtracted
176 ; 5695.82
180 ; 4732.03
184 ; 3766.91
188 ; 3155.30
192 ; 2684.69
196 ; 2410.35
200 ; 2280.32
204 ; 2107.09
208 ; 1876.40
212 ; 1692.26
216 ; 1549.20
220 ; 1413.64
224 ; 1299.64
228 ; 1213.89
232 ; 1134.50
236 ; 1060.91
240 ; 1011.94
244 ; 960.77
248 ; 878.35
252 ; 836.39
256 ; 872.11
260 ; 889.51
264 ; 838.88
268 ; 749.45
272 ; 688.40
276 ; 716.50
280 ; 740.75
284 ; 685.88
288 ; 630.20
292 ; 606.49
296 ; 572.21
300 ; 543.85
304 ; 561.14
308 ; 590.87
312 ; 586.79
316 ; 523.41
320 ; 438.23
324 ; 424.38
328 ; 462.36
332 ; 472.41
336 ; 388.05
340 ; 237.97
344 ; 213.43
348 ; 326.44
352 ; 428.15
356 ; 473.76
360 ; 470.13
364 ; 442.85
368 ; 402.29
372 ; 340.39
376 ; 325.38
380 ; 422.53
384 ; 460.10
388 ; 349.99
392 ; 289.03
396 ; 317.40
400 ; 323.87
404 ; 311.93
408 ; 312.54
412 ; 300.94
416 ; 302.80
420 ; 391.91
424 ; 453.01
428 ; 356.70
432 ; 277.54
436 ; 294.71
440 ; 276.71
444 ; 266.85
448 ; 369.50
452 ; 444.60
456 ; 401.29
460 ; 337.31
464 ; 302.42
468 ; 296.51
472 ; 304.10
476 ; 304.66
480 ; 278.72
484 ; 251.78
488 ; 270.50
492 ; 316.22
496 ; 350.30
500 ; 338.84
504 ; 304.89
508 ; 301.03
512 ; 319.02
516 ; 331.55
520 ; 313.95
524 ; 322.67
528 ; 422.05
532 ; 470.85
536 ; 411.47
540 ; 387.72
544 ; 367.23
548 ; 262.10
552 ; 209.05
556 ; 253.38
560 ; 275.20
564 ; 296.84
568 ; 353.29
572 ; 303.32
576 ; 185.50
580 ; 205.00
584 ; 286.76
588 ; 313.98
592 ; 310.07
596 ; 292.85
600 ; 276.94
604 ; 336.07
608 ; 431.62
612 ; 366.76
616 ; 224.74
620 ; 181.01
624 ; 229.89
628 ; 298.32
632 ; 294.32
636 ; 218.83
640 ; 140.06
644 ; 165.84
648 ; 239.68
652 ; 244.31
656 ; 204.77
660 ; 179.21
664 ; 216.60
668 ; 284.85
672 ; 304.32
676 ; 187.84
680 ; 81.13
684 ; 154.09
688 ; 242.62
692 ; 269.05
696 ; 287.33
700 ; 301.70
704 ; 402.81
708 ; 779.41
712 ; 1147.59
716 ; 1168.28
720 ; 940.86
724 ; 658.72
728 ; 535.68
732 ; 772.10
736 ; 1308.17
740 ; 1775.51
744 ; 1708.23
748 ; 1108.77
752 ; 653.92
756 ; 429.71
760 ; 271.19
764 ; 157.50
768 ; 115.04
772 ; 137.04
776 ; 77.25
780 ; 31.49
784 ; 199.48
788 ; 266.92
792 ; 161.09
796 ; 164.66
800 ; 188.53
804 ; 144.31
808 ; 120.95
812 ; 138.90
816 ; 166.73
820 ; 149.83
824 ; 81.19
828 ; 7.69
832 ; 20.72
836 ; 67.68
840 ; 59.69
844 ; 48.27
848 ; 64.12
852 ; 91.14
856 ; 73.72
860 ; 49.09
864 ; 102.04
868 ; 200.12
872 ; 219.39
876 ; 67.76
880 ; 0.00
884 ; 17.47
888 ; 71.39
892 ; 120.14
896 ; 158.99
900 ; 168.03
904 ; 143.14
908 ; 95.65
912 ; 60.52
916 ; 119.34
920 ; 189.45
924 ; 112.66
928 ; 124.03
932 ; 216.17
936 ; 154.89
940 ; 122.68
944 ; 167.93
948 ; 153.08
952 ; 76.32
956 ; 35.31
960 ; 93.58
964 ; 41.61
968 ; 11.62
972 ; 200.98
976 ; 159.63
980 ; 40.50
984 ; 192.25
988 ; 253.41
992 ; 157.71
996 ; 75.26
1000 ; 139.01
1004 ; 232.24
1008 ; 231.73
1012 ; 205.79
1016 ; 212.85
1020 ; 272.60
1024 ; 398.40
1028 ; 746.01
1032 ; 1272.40
1036 ; 2632.82
1040 ; 8752.61
1044 ; 18357.37
1048 ; 24537.99
1052 ; 19546.94
1056 ; 9165.84
1060 ; 3072.88
1064 ; 978.26
1068 ; 683.71
1072 ; 572.01
1076 ; 425.80
1080 ; 317.05
1084 ; 285.84
1088 ; 287.52
1092 ; 301.97
1096 ; 242.41
1100 ; 103.20
1104 ; 135.30
1108 ; 252.03
1112 ; 271.12
1116 ; 176.92
1120 ; 143.69
1124 ; 183.47
1128 ; 172.86
1132 ; 198.25
1136 ; 229.49
1140 ; 196.40
1144 ; 129.57
1148 ; 44.64
1152 ; 0.52
1156 ; 65.34
1160 ; 143.82
1164 ; 157.98
1168 ; 141.34
1172 ; 220.07
1176 ; 195.37
1180 ; 67.32
1184 ; 82.11
1188 ; 33.64
1192 ; 18.78
1196 ; 143.06
1200 ; 113.29
1204 ; 68.24
1208 ; 95.94
1212 ; 89.74
1216 ; 34.82
1220 ; 28.52
1224 ; 93.64
1228 ; 106.00
1232 ; 107.86
1236 ; 160.64
1240 ; 224.33
1244 ; 152.96
1248 ; 117.21
1252 ; 134.99
1256 ; 45.64
1260 ; 0.00
1264 ; 45.94
1268 ; 178.51
1272 ; 214.41
1276 ; 113.75
1280 ; 39.24
1284 ; 77.69
1288 ; 69.91
1292 ; 77.25
1296 ; 97.81
1300 ; 91.63
1304 ; 115.43
1308 ; 154.32
1312 ; 164.33
1316 ; 149.97
1320 ; 191.06
1324 ; 214.86
1328 ; 245.73
1332 ; 343.72
1336 ; 374.04
1340 ; 386.97
1344 ; 507.96
1348 ; 715.15
1352 ; 749.09
1356 ; 686.04
1360 ; 610.47
1364 ; 539.72
1368 ; 525.74
1372 ; 309.35
1376 ; 112.22
1380 ; 210.29
1384 ; 204.61
1388 ; 211.86
1392 ; 262.90
1396 ; 262.79
1400 ; 215.11
1404 ; 135.37
1408 ; 187.72
1412 ; 348.09
1416 ; 375.48
1420 ; 447.20
1424 ; 581.33
1428 ; 622.65
1432 ; 519.65
1436 ; 529.63
1440 ; 477.85
1444 ; 400.04
1448 ; 457.02
1452 ; 501.81
1456 ; 365.51
1460 ; 276.32
1464 ; 318.89
1468 ; 300.51
1472 ; 386.41
1476 ; 318.70
1480 ; 170.89
1484 ; 179.88
1488 ; 179.45
1492 ; 156.70
1496 ; 96.70
1500 ; 65.73
1504 ; 92.34
1508 ; 0.00
1512 ; 143.54
1516 ; 208.91
1520 ; 41.46
1524 ; 139.77
1528 ; 131.78
1532 ; 48.31
1536 ; 0.20
1540 ; 15.86
1544 ; 89.54
1548 ; 66.70
1552 ; 51.97
1556 ; 43.77
1560 ; 46.39
1564 ; 174.05
1568 ; 147.95
1572 ; 77.07
1576 ; 171.29
1580 ; 259.57
1584 ; 61.81
1588 ; 74.79
1592 ; 46.78
1596 ; 7.23
1600 ; 63.34
1604 ; 24.00
1608 ; 0.00
1612 ; 66.35
1616 ; 95.83
1620 ; 41.05
1624 ; 62.65
1628 ; 175.42
1632 ; 309.24
1636 ; 266.19
1640 ; 291.91
1644 ; 409.05
1648 ; 261.72
1652 ; 362.45
1656 ; 322.53
1660 ; 214.44
1664 ; 168.14
1668 ; 96.93
1672 ; 93.26
1676 ; 102.18
1680 ; 130.91
1684 ; 74.86
1688 ; 0.00
1692 ; 0.49
1696 ; 0.00
1700 ; 54.87
1704 ; 107.69
1708 ; 58.28
1712 ; 16.88
1716 ; 94.30
1720 ; 124.34
1724 ; 36.36
1728 ; 0.00
1732 ; 39.32
1736 ; 85.41
1740 ; 46.81
1744 ; 12.06
1748 ; 78.29
1752 ; 29.34
1756 ; 0.00
1760 ; 13.21
1764 ; 50.65
1768 ; 47.50
1772 ; 0.00
1776 ; 100.13
1780 ; 29.18
1784 ; 13.95
1788 ; 23.14
1792 ; 8.01
1796 ; 29.03
1800 ; 1.41
1804 ; 101.85
1808 ; 28.39
1812 ; 0.00
1816 ; 2.73
1820 ; 3.51
1824 ; 61.48
1828 ; 137.26
1832 ; 102.88
1836 ; 80.97
1840 ; 20.14
1844 ; 0.00
1848 ; 54.79
1852 ; 67.89
1856 ; 0.00
1860 ; 14.90
1864 ; 0.00
1868 ; 0.06
1872 ; 0.00
1876 ; 25.79
1880 ; 32.26
1884 ; 27.23
1888 ; 37.75
1892 ; 23.41
1896 ; 0.00
1900 ; 0.00
1904 ; 0.00
1908 ; 58.86
1912 ; 25.30
1916 ; 0.00
1920 ; 44.25
1924 ; 45.96
1928 ; 6.38
1932 ; 71.56
1936 ; 90.09
1940 ; 106.80
1944 ; 32.14
1948 ; 15.74
1952 ; 4.10
1956 ; 1.33
1960 ; 0.00
1964 ; 42.57
1968 ; 46.64
1972 ; 30.54
1976 ; 102.68
1980 ; 0.00
1984 ; 14.48
1988 ; 42.20
1992 ; 27.32
1996 ; 0.00
2000 ; 72.06
2004 ; 23.72
2008 ; 40.17
2012 ; 85.81
2016 ; 60.64
2020 ; 20.62
2024 ; 21.13
2028 ; 92.78
2032 ; 39.70
2036 ; 0.00
2040 ; 0.21
2044 ; 0.01
2048 ; 0.29
2052 ; 0.00
2056 ; 21.07
2060 ; 12.93
2064 ; 7.99
2068 ; 4.48
2072 ; 0.00
2076 ; 20.06
2080 ; 44.12
2084 ; 38.48
2088 ; 16.43
2092 ; 0.00
2096 ; 0.00
2100 ; 7.54
2104 ; 28.72
2108 ; 9.04
2112 ; 0.00
2116 ; 14.15
2120 ; 145.99
2124 ; 0.00
2128 ; 27.22
2132 ; 0.00
2136 ; 53.69
2140 ; 11.64
2144 ; 36.36
2148 ; 3.19
2152 ; 87.19
2156 ; 65.11
2160 ; 9.37
2164 ; 0.00
2168 ; 111.15
2172 ; 34.99
2176 ; 6.02
2180 ; 9.31
2184 ; 0.00
2188 ; 2.72
2192 ; 0.00
2196 ; 41.52
2200 ; 1.67
2204 ; 94.65
2208 ; 81.89
2212 ; 0.00
2216 ; 54.98
2220 ; 17.51
2224 ; 51.48
2228 ; 34.86
2232 ; 0.00
2236 ; 11.39
2240 ; 0.00
2244 ; 195.89
2248 ; 82.46
2252 ; 24.89
2256 ; 23.96
2260 ; 0.00
2264 ; 0.00
2268 ; 26.45
2272 ; 57.28
2276 ; 11.69
2280 ; 0.00
2284 ; 60.22
2288 ; 9.90
2292 ; 0.00
2296 ; 108.40
2300 ; 184.79
2304 ; 1.90
2308 ; 0.53
2312 ; 0.00
2316 ; 0.00
2320 ; 11.34
2324 ; 88.56
2328 ; 4.96
2332 ; 30.75
2336 ; 14.57
2340 ; 0.66
2344 ; 0.00
2348 ; 55.41
2352 ; 63.41
2356 ; 0.00
2360 ; 9.61
2364 ; 0.00
2368 ; 36.61
2372 ; 10.22
2376 ; 0.00
2380 ; 10.57
2384 ; 35.31
2388 ; 59.93
2392 ; 0.00
2396 ; 0.82
2400 ; 3.04
2404 ; 10.45
2408 ; 0.00
2412 ; 0.00
2416 ; 13.63
2420 ; 48.09
2424 ; 12.16
2428 ; 0.00
2432 ; 0.31
2436 ; 0.00
2440 ; 0.00
2444 ; 2.92
2448 ; 17.60
2452 ; 0.00
2456 ; 14.49
2460 ; 12.31
2464 ; 44.24
2468 ; 46.80
2472 ; 19.20
2476 ; 25.84
2480 ; 0.00
2484 ; 3.80
2488 ; 57.54
2492 ; 52.20
2496 ; 0.00
2500 ; 3.10
