Raman Shift ; Dark Subtracted
176 ; 5777.96
180 ; 5619.51
184 ; 4989.37
188 ; 4614.42
192 ; 4474.33
196 ; 4600.62
200 ; 4814.58
204 ; 4726.05
208 ; 4469.34
212 ; 4497.63
216 ; 4623.72
220 ; 4500.15
224 ; 4213.15
228 ; 3900.71
232 ; 3614.85
236 ; 3341.86
240 ; 3016.31
244 ; 2650.19
248 ; 2310.51
252 ; 2099.38
256 ; 2020.11
260 ; 1856.67
264 ; 1623.96
268 ; 1604.30
272 ; 1726.43
276 ; 1739.32
280 ; 1651.94
284 ; 1555.51
288 ; 1534.39
292 ; 1587.62
296 ; 1625.33
300 ; 1687.90
304 ; 1844.57
308 ; 1907.08
312 ; 1742.85
316 ; 1510.21
320 ; 1416.76
324 ; 1628.48
328 ; 1780.34
332 ; 1455.70
336 ; 1207.57
340 ; 1426.48
344 ; 1726.25
348 ; 1874.82
352 ; 1879.84
356 ; 1882.64
360 ; 1964.89
364 ; 1878.38
368 ; 1585.18
372 ; 1386.24
376 ; 1338.14
380 ; 1336.26
384 ; 1318.59
388 ; 1268.85
392 ; 1232.76
396 ; 1236.43
400 ; 1262.96
404 ; 1163.54
408 ; 907.71
412 ; 909.30
416 ; 1174.22
420 ; 1209.14
424 ; 1061.89
428 ; 996.92
432 ; 995.60
436 ; 1004.78
440 ; 1014.43
444 ; 1049.41
448 ; 1121.68
452 ; 1105.81
456 ; 983.35
460 ; 959.71
464 ; 1009.19
468 ; 977.53
472 ; 974.75
476 ; 1052.15
480 ; 1027.32
484 ; 921.25
488 ; 895.11
492 ; 928.75
496 ; 987.70
500 ; 1104.66
504 ; 1163.63
508 ; 1014.02
512 ; 884.93
516 ; 928.20
520 ; 989.00
524 ; 1004.76
528 ; 1001.61
532 ; 1008.39
536 ; 1024.01
540 ; 1004.52
544 ; 951.27
548 ; 900.32
552 ; 897.54
556 ; 939.55
560 ; 956.62
564 ; 875.65
568 ; 711.11
572 ; 711.25
576 ; 855.67
580 ; 855.30
584 ; 699.53
588 ; 523.69
592 ; 516.18
596 ; 620.46
600 ; 644.36
604 ; 629.86
608 ; 657.58
612 ; 758.00
616 ; 830.07
620 ; 778.44
624 ; 710.18
628 ; 733.31
632 ; 866.22
636 ; 821.44
640 ; 544.93
644 ; 522.14
648 ; 717.84
652 ; 830.51
656 ; 845.71
660 ; 825.25
664 ; 823.94
668 ; 759.04
672 ; 641.83
676 ; 704.81
680 ; 900.27
684 ; 1019.17
688 ; 923.55
692 ; 803.98
696 ; 1008.69
700 ; 1156.12
704 ; 1105.76
708 ; 1343.23
712 ; 1633.54
716 ; 1679.89
720 ; 1906.41
724 ; 2280.94
728 ; 2450.97
732 ; 2431.83
736 ; 2224.25
740 ; 1771.99
744 ; 1272.28
748 ; 948.46
752 ; 897.47
756 ; 857.76
760 ; 650.08
764 ; 597.52
768 ; 633.05
772 ; 523.09
776 ; 430.92
780 ; 455.24
784 ; 539.39
788 ; 503.10
792 ; 419.25
796 ; 567.80
800 ; 624.24
804 ; 458.65
808 ; 444.79
812 ; 501.99
816 ; 481.79
820 ; 479.97
824 ; 512.30
828 ; 551.65
832 ; 592.11
836 ; 572.49
840 ; 469.12
844 ; 431.86
848 ; 408.51
852 ; 305.64
856 ; 368.06
860 ; 460.60
864 ; 308.78
868 ; 347.77
872 ; 519.63
876 ; 396.84
880 ; 304.69
884 ; 358.30
888 ; 377.97
892 ; 479.04
896 ; 598.57
900 ; 514.01
904 ; 407.46
908 ; 411.51
912 ; 471.09
916 ; 420.30
920 ; 345.29
924 ; 473.03
928 ; 485.81
932 ; 405.02
936 ; 535.80
940 ; 482.99
944 ; 240.69
948 ; 222.90
952 ; 460.87
956 ; 610.05
960 ; 367.90
964 ; 326.94
968 ; 542.20
972 ; 618.61
976 ; 524.20
980 ; 428.54
984 ; 483.10
988 ; 572.40
992 ; 683.34
996 ; 729.56
1000 ; 409.89
1004 ; 242.09
1008 ; 520.57
1012 ; 593.82
1016 ; 630.76
1020 ; 770.37
1024 ; 745.87
1028 ; 901.33
1032 ; 1294.69
1036 ; 1597.68
1040 ; 2027.99
1044 ; 3335.57
1048 ; 8964.93
1052 ; 27012.74
1056 ; 44858.25
1060 ; 44525.94
1064 ; 26986.68
1068 ; 9581.36
1072 ; 3378.87
1076 ; 1771.61
1080 ; 1432.08
1084 ; 1274.82
1088 ; 1067.84
1092 ; 848.12
1096 ; 758.94
1100 ; 817.20
1104 ; 719.06
1108 ; 602.57
1112 ; 637.84
1116 ; 700.74
1120 ; 695.82
1124 ; 700.78
1128 ; 793.72
1132 ; 659.95
1136 ; 561.01
1140 ; 719.50
1144 ; 669.27
1148 ; 617.78
1152 ; 631.94
1156 ; 450.54
1160 ; 345.99
1164 ; 328.84
1168 ; 317.14
1172 ; 495.50
1176 ; 550.35
1180 ; 401.31
1184 ; 374.55
1188 ; 425.70
1192 ; 440.87
1196 ; 398.22
1200 ; 380.09
1204 ; 233.75
1208 ; 178.39
1212 ; 488.03
1216 ; 399.67
1220 ; 276.69
1224 ; 468.18
1228 ; 421.16
1232 ; 311.41
1236 ; 270.25
1240 ; 297.18
1244 ; 471.38
1248 ; 514.84
1252 ; 390.99
1256 ; 359.06
1260 ; 408.35
1264 ; 457.39
1268 ; 461.67
1272 ; 421.03
1276 ; 299.55
1280 ; 279.34
1284 ; 466.14
1288 ; 663.74
1292 ; 877.60
1296 ; 892.96
1300 ; 655.29
1304 ; 654.75
1308 ; 676.58
1312 ; 542.89
1316 ; 402.97
1320 ; 488.88
1324 ; 558.61
1328 ; 459.85
1332 ; 354.43
1336 ; 504.23
1340 ; 784.31
1344 ; 983.24
1348 ; 1008.67
1352 ; 958.77
1356 ; 979.99
1360 ; 1074.75
1364 ; 1142.38
1368 ; 1138.87
1372 ; 1072.53
1376 ; 1054.00
1380 ; 1054.13
1384 ; 812.34
1388 ; 740.34
1392 ; 596.88
1396 ; 389.95
1400 ; 931.42
1404 ; 944.86
1408 ; 737.43
1412 ; 989.98
1416 ; 1306.56
1420 ; 1627.19
1424 ; 1928.92
1428 ; 2178.39
1432 ; 2311.39
1436 ; 2265.00
1440 ; 2047.84
1444 ; 1766.14
1448 ; 1517.96
1452 ; 1298.98
1456 ; 982.19
1460 ; 811.82
1464 ; 830.43
1468 ; 718.17
1472 ; 579.79
1476 ; 380.33
1480 ; 344.33
1484 ; 499.30
1488 ; 343.00
1492 ; 370.97
1496 ; 468.01
1500 ; 415.58
1504 ; 332.12
1508 ; 259.23
1512 ; 270.25
1516 ; 264.94
1520 ; 283.53
1524 ; 409.25
1528 ; 165.28
1532 ; 274.36
1536 ; 470.52
1540 ; 320.01
1544 ; 378.59
1548 ; 294.29
1552 ; 268.44
1556 ; 304.58
1560 ; 227.19
1564 ; 153.74
1568 ; 126.61
1572 ; 168.14
1576 ; 171.65
1580 ; 133.72
1584 ; 219.70
1588 ; 300.43
1592 ; 348.42
1596 ; 343.31
1600 ; 259.15
1604 ; 163.43
1608 ; 207.00
1612 ; 328.34
1616 ; 315.81
1620 ; 284.93
1624 ; 354.21
1628 ; 206.71
1632 ; 312.16
1636 ; 489.52
1640 ; 532.55
1644 ; 504.42
1648 ; 539.72
1652 ; 799.38
1656 ; 974.09
1660 ; 901.78
1664 ; 697.81
1668 ; 468.44
1672 ; 248.86
1676 ; 289.47
1680 ; 439.97
1684 ; 236.79
1688 ; 55.23
1692 ; 246.45
1696 ; 80.21
1700 ; 261.49
1704 ; 196.46
1708 ; 131.63
1712 ; 218.45
1716 ; 156.38
1720 ; 196.94
1724 ; 187.27
1728 ; 127.26
1732 ; 107.03
1736 ; 212.46
1740 ; 275.59
1744 ; 91.86
1748 ; 0.00
1752 ; 110.82
1756 ; 289.32
1760 ; 229.28
1764 ; 111.81
1768 ; 120.67
1772 ; 0.01
1776 ; 113.74
1780 ; 86.57
1784 ; 13.57
1788 ; 86.45
1792 ; 137.16
1796 ; 96.79
1800 ; 119.96
1804 ; 0.00
1808 ; 132.07
1812 ; 68.89
1816 ; 0.91
1820 ; 154.06
1824 ; 159.82
1828 ; 0.73
1832 ; 124.41
1836 ; 73.52
1840 ; 425.90
1844 ; 237.32
1848 ; 131.83
1852 ; 188.09
1856 ; 39.25
1860 ; 157.82
1864 ; 0.00
1868 ; 94.38
1872 ; 193.58
1876 ; 227.20
1880 ; 155.71
1884 ; 176.58
1888 ; 187.29
1892 ; 50.53
1896 ; 68.22
1900 ; 116.42
1904 ; 242.28
1908 ; 143.46
1912 ; 183.94
1916 ; 59.25
1920 ; 190.07
1924 ; 308.57
1928 ; 195.96
1932 ; 266.66
1936 ; 71.57
1940 ; 280.43
1944 ; 179.99
1948 ; 105.78
1952 ; 5.67
1956 ; 84.09
1960 ; 54.22
1964 ; 73.73
1968 ; 165.86
1972 ; 145.40
1976 ; 161.48
1980 ; 0.00
1984 ; 6.84
1988 ; 155.71
1992 ; 12.29
1996 ; 202.34
2000 ; 180.05
2004 ; 16.89
2008 ; 41.73
2012 ; 133.50
2016 ; 157.53
2020 ; 72.69
2024 ; 73.02
2028 ; 197.08
2032 ; 99.34
2036 ; 104.91
2040 ; 158.42
2044 ; 164.94
2048 ; 277.11
2052 ; 213.96
2056 ; 115.41
2060 ; 134.02
2064 ; 18.96
2068 ; 90.38
2072 ; 60.41
2076 ; 18.07
2080 ; 209.99
2084 ; 118.38
2088 ; 68.72
2092 ; 164.70
2096 ; 43.22
2100 ; 142.08
2104 ; 0.00
2108 ; 20.68
2112 ; 86.49
2116 ; 151.90
2120 ; 243.45
2124 ; 229.39
2128 ; 40.54
2132 ; 123.83
2136 ; 1.83
2140 ; 129.28
2144 ; 131.54
2148 ; 209.49
2152 ; 140.35
2156 ; 115.42
2160 ; 116.55
2164 ; 112.67
2168 ; 96.54
2172 ; 0.00
2176 ; 210.37
2180 ; 145.52
2184 ; 0.00
2188 ; 261.12
2192 ; 169.33
2196 ; 0.00
2200 ; 123.60
2204 ; 65.46
2208 ; 151.02
2212 ; 299.68
2216 ; 70.73
2220 ; 62.63
2224 ; 123.71
2228 ; 0.00
2232 ; 193.22
2236 ; 212.70
2240 ; 309.42
2244 ; 120.64
2248 ; 0.00
2252 ; 112.30
2256 ; 120.21
2260 ; 52.06
2264 ; 178.74
2268 ; 79.17
2272 ; 179.44
2276 ; 89.19
2280 ; 79.03
2284 ; 71.72
2288 ; 260.86
2292 ; 15.36
2296 ; 117.65
2300 ; 31.04
2304 ; 198.27
2308 ; 0.00
2312 ; 91.17
2316 ; 76.45
2320 ; 242.60
2324 ; 142.66
2328 ; 26.37
2332 ; 51.24
2336 ; 54.80
2340 ; 108.82
2344 ; 0.00
2348 ; 13.58
2352 ; 31.75
2356 ; 19.15
2360 ; 58.37
2364 ; 79.58
2368 ; 65.51
2372 ; 12.06
2376 ; 0.00
2380 ; 0.00
2384 ; 59.67
2388 ; 125.68
2392 ; 121.39
2396 ; 201.81
2400 ; 170.34
2404 ; 94.39
2408 ; 111.70
2412 ; 39.81
2416 ; 0.00
2420 ; 122.99
2424 ; 40.62
2428 ; 47.29
2432 ; 51.04
2436 ; 141.23
2440 ; 146.91
2444 ; 0.00
2448 ; 65.47
2452 ; 5.66
2456 ; 22.24
2460 ; 208.22
2464 ; 113.10
2468 ; 0.00
2472 ; 68.89
2476 ; 1.46
2480 ; 57.39
2484 ; 39.19
2488 ; 0.00
2492 ; 5.75
2496 ; 0.00
2500 ; 210.47
