Raman Shift ; Dark Subtracted
176 ; 3933.57
180 ; 3809.66
184 ; 3611.90
188 ; 3516.53
192 ; 3264.65
196 ; 3177.25
200 ; 3346.26
204 ; 3480.40
208 ; 3481.28
212 ; 3424.49
216 ; 3371.64
220 ; 3357.21
224 ; 3337.66
228 ; 3244.07
232 ; 2998.89
236 ; 2642.97
240 ; 2325.37
244 ; 2075.42
248 ; 1865.24
252 ; 1711.02
256 ; 1604.40
260 ; 1465.92
264 ; 1301.31
268 ; 1211.29
272 ; 1177.31
276 ; 1131.31
280 ; 1134.65
284 ; 1218.40
288 ; 1250.61
292 ; 1176.86
296 ; 1068.46
300 ; 1053.01
304 ; 1227.36
308 ; 1406.82
312 ; 1411.17
316 ; 1255.20
320 ; 1084.03
324 ; 1122.82
328 ; 1238.64
332 ; 1199.83
336 ; 1180.75
340 ; 1291.86
344 ; 1337.39
348 ; 1335.97
352 ; 1474.73
356 ; 1559.34
360 ; 1398.88
364 ; 1304.03
368 ; 1358.81
372 ; 1254.83
376 ; 1051.34
380 ; 980.22
384 ; 923.03
388 ; 806.98
392 ; 828.33
396 ; 957.67
400 ; 967.11
404 ; 857.61
408 ; 737.28
412 ; 740.50
416 ; 843.44
420 ; 853.54
424 ; 758.06
428 ; 665.29
432 ; 750.61
436 ; 964.17
440 ; 954.09
444 ; 777.10
448 ; 689.35
452 ; 655.48
456 ; 623.71
460 ; 637.98
464 ; 702.46
468 ; 777.18
472 ; 791.09
476 ; 728.74
480 ; 684.09
484 ; 694.85
488 ; 735.79
492 ; 738.60
496 ; 705.39
500 ; 771.77
504 ; 821.16
508 ; 647.96
512 ; 554.83
516 ; 672.59
520 ; 625.84
524 ; 532.21
528 ; 728.79
532 ; 864.31
536 ; 726.56
540 ; 595.65
544 ; 586.60
548 ; 667.93
552 ; 742.21
556 ; 771.09
560 ; 792.03
564 ; 695.81
568 ; 441.46
572 ; 386.12
576 ; 595.06
580 ; 786.48
584 ; 810.75
588 ; 675.72
592 ; 591.84
596 ; 574.59
600 ; 517.50
604 ; 500.34
608 ; 571.54
612 ; 659.76
616 ; 685.52
620 ; 621.32
624 ; 574.42
628 ; 562.61
632 ; 527.39
636 ; 607.59
640 ; 793.03
644 ; 740.79
648 ; 579.37
652 ; 588.00
656 ; 536.92
660 ; 454.16
664 ; 638.54
668 ; 764.75
672 ; 614.49
676 ; 531.20
680 ; 547.54
684 ; 560.14
688 ; 697.73
692 ; 869.26
696 ; 824.13
700 ; 781.44
704 ; 906.64
708 ; 1074.50
712 ; 1296.97
716 ; 1618.36
720 ; 1963.60
724 ; 2208.85
728 ; 2244.84
732 ; 2079.27
736 ; 1750.84
740 ; 1327.36
744 ; 966.21
748 ; 749.45
752 ; 615.62
756 ; 557.51
760 ; 535.53
764 ; 399.47
768 ; 298.57
772 ; 427.10
776 ; 508.16
780 ; 449.26
784 ; 392.51
788 ; 456.59
792 ; 593.77
796 ; 604.36
800 ; 441.07
804 ; 267.89
808 ; 387.34
812 ; 516.41
816 ; 415.46
820 ; 341.81
824 ; 268.67
828 ; 139.79
832 ; 174.79
836 ; 298.70
840 ; 338.92
844 ; 381.94
848 ; 370.60
852 ; 248.80
856 ; 324.23
860 ; 442.64
864 ; 263.97
868 ; 240.64
872 ; 406.11
876 ; 410.68
880 ; 428.80
884 ; 475.35
888 ; 375.06
892 ; 280.40
896 ; 299.79
900 ; 390.90
904 ; 394.14
908 ; 266.21
912 ; 145.51
916 ; 300.97
920 ; 514.26
924 ; 301.91
928 ; 187.43
932 ; 300.26
936 ; 286.36
940 ; 384.21
944 ; 468.72
948 ; 206.32
952 ; 177.60
956 ; 375.48
960 ; 331.74
964 ; 317.70
968 ; 379.54
972 ; 356.97
976 ; 352.20
980 ; 428.91
984 ; 523.23
988 ; 442.66
992 ; 318.02
996 ; 344.11
1000 ; 429.99
1004 ; 473.91
1008 ; 459.27
1012 ; 469.87
1016 ; 445.92
1020 ; 405.39
1024 ; 514.17
1028 ; 739.01
1032 ; 943.17
1036 ; 1072.93
1040 ; 1533.75
1044 ; 2685.32
1048 ; 6956.34
1052 ; 21331.05
1056 ; 36006.50
1060 ; 36320.42
1064 ; 22222.90
1068 ; 7940.99
1072 ; 2829.12
1076 ; 1479.29
1080 ; 1166.40
1084 ; 1002.85
1088 ; 819.60
1092 ; 732.76
1096 ; 727.05
1100 ; 705.08
1104 ; 681.92
1108 ; 680.56
1112 ; 627.83
1116 ; 426.60
1120 ; 493.02
1124 ; 705.53
1128 ; 592.36
1132 ; 596.08
1136 ; 603.00
1140 ; 425.76
1144 ; 462.08
1148 ; 477.14
1152 ; 383.02
1156 ; 426.85
1160 ; 403.72
1164 ; 347.84
1168 ; 393.84
1172 ; 423.24
1176 ; 417.93
1180 ; 352.95
1184 ; 229.57
1188 ; 325.15
1192 ; 419.69
1196 ; 263.16
1200 ; 189.86
1204 ; 296.02
1208 ; 353.27
1212 ; 173.51
1216 ; 229.96
1220 ; 309.78
1224 ; 200.00
1228 ; 222.18
1232 ; 236.38
1236 ; 237.37
1240 ; 336.47
1244 ; 451.11
1248 ; 484.69
1252 ; 369.01
1256 ; 176.24
1260 ; 243.49
1264 ; 396.24
1268 ; 365.27
1272 ; 214.19
1276 ; 272.22
1280 ; 413.14
1284 ; 407.94
1288 ; 402.41
1292 ; 580.50
1296 ; 723.21
1300 ; 608.72
1304 ; 506.17
1308 ; 416.91
1312 ; 338.01
1316 ; 357.19
1320 ; 505.66
1324 ; 497.26
1328 ; 466.14
1332 ; 619.73
1336 ; 477.00
1340 ; 509.49
1344 ; 783.32
1348 ; 869.32
1352 ; 862.35
1356 ; 973.71
1360 ; 1083.55
1364 ; 1002.30
1368 ; 958.08
1372 ; 955.62
1376 ; 863.89
1380 ; 687.51
1384 ; 655.93
1388 ; 649.98
1392 ; 624.41
1396 ; 594.27
1400 ; 503.53
1404 ; 463.31
1408 ; 651.92
1412 ; 924.92
1416 ; 971.20
1420 ; 1192.88
1424 ; 1469.86
1428 ; 1714.25
1432 ; 1984.03
1436 ; 1969.18
1440 ; 1722.86
1444 ; 1411.69
1448 ; 1141.14
1452 ; 960.79
1456 ; 729.13
1460 ; 501.99
1464 ; 448.46
1468 ; 536.78
1472 ; 443.54
1476 ; 346.65
1480 ; 368.44
1484 ; 372.20
1488 ; 264.39
1492 ; 341.36
1496 ; 403.20
1500 ; 251.77
1504 ; 117.83
1508 ; 283.81
1512 ; 359.36
1516 ; 276.96
1520 ; 223.02
1524 ; 229.83
1528 ; 272.86
1532 ; 305.52
1536 ; 231.10
1540 ; 137.29
1544 ; 236.27
1548 ; 240.93
1552 ; 269.43
1556 ; 327.91
1560 ; 297.81
1564 ; 242.59
1568 ; 224.01
1572 ; 192.78
1576 ; 184.44
1580 ; 240.68
1584 ; 280.04
1588 ; 255.32
1592 ; 235.91
1596 ; 157.50
1600 ; 30.76
1604 ; 85.12
1608 ; 337.37
1612 ; 289.29
1616 ; 204.66
1620 ; 303.03
1624 ; 317.11
1628 ; 241.68
1632 ; 271.77
1636 ; 382.22
1640 ; 567.72
1644 ; 629.32
1648 ; 457.40
1652 ; 737.38
1656 ; 711.27
1660 ; 494.79
1664 ; 415.31
1668 ; 348.24
1672 ; 280.79
1676 ; 216.31
1680 ; 203.93
1684 ; 218.87
1688 ; 215.76
1692 ; 158.63
1696 ; 39.00
1700 ; 45.69
1704 ; 184.57
1708 ; 179.97
1712 ; 204.85
1716 ; 308.51
1720 ; 37.52
1724 ; 190.17
1728 ; 255.73
1732 ; 72.59
1736 ; 25.85
1740 ; 211.27
1744 ; 283.94
1748 ; 147.12
1752 ; 22.29
1756 ; 2.11
1760 ; 117.18
1764 ; 134.96
1768 ; 30.16
1772 ; 143.74
1776 ; 134.83
1780 ; 225.50
1784 ; 189.39
1788 ; 67.34
1792 ; 116.13
1796 ; 126.63
1800 ; 5.76
1804 ; 414.34
1808 ; 173.07
1812 ; 156.27
1816 ; 122.68
1820 ; 134.68
1824 ; 283.69
1828 ; 79.70
1832 ; 200.01
1836 ; 83.61
1840 ; 82.14
1844 ; 76.40
1848 ; 184.79
1852 ; 229.00
1856 ; 61.15
1860 ; 4.68
1864 ; 0.61
1868 ; 163.34
1872 ; 39.58
1876 ; 15.33
1880 ; 267.03
1884 ; 208.92
1888 ; 52.22
1892 ; 179.38
1896 ; 52.21
1900 ; 0.03
1904 ; 145.80
1908 ; 169.36
1912 ; 33.20
1916 ; 10.65
1920 ; 56.77
1924 ; 53.53
1928 ; 46.08
1932 ; 69.58
1936 ; 76.42
1940 ; 0.00
1944 ; 119.34
1948 ; 1.63
1952 ; 166.21
1956 ; 66.36
1960 ; 83.53
1964 ; 185.36
1968 ; 40.42
1972 ; 16.98
1976 ; 55.75
1980 ; 6.48
1984 ; 123.30
1988 ; 96.12
1992 ; 104.30
1996 ; 102.44
2000 ; 60.68
2004 ; 148.54
2008 ; 103.36
2012 ; 138.73
2016 ; 159.88
2020 ; 0.00
2024 ; 46.78
2028 ; 194.06
2032 ; 187.94
2036 ; 124.08
2040 ; 0.58
2044 ; 102.85
2048 ; 7.10
2052 ; 35.29
2056 ; 113.92
2060 ; 39.89
2064 ; 183.35
2068 ; 105.73
2072 ; 111.11
2076 ; 184.34
2080 ; 102.27
2084 ; 33.35
2088 ; 93.13
2092 ; 250.63
2096 ; 237.98
2100 ; 144.09
2104 ; 81.73
2108 ; 88.14
2112 ; 334.76
2116 ; 135.18
2120 ; 63.16
2124 ; 216.46
2128 ; 194.31
2132 ; 127.84
2136 ; 218.82
2140 ; 12.68
2144 ; 69.56
2148 ; 105.53
2152 ; 104.94
2156 ; 89.35
2160 ; 43.89
2164 ; 174.69
2168 ; 267.61
2172 ; 212.39
2176 ; 297.16
2180 ; 286.97
2184 ; 41.16
2188 ; 70.56
2192 ; 101.17
2196 ; 299.58
2200 ; 245.48
2204 ; 75.60
2208 ; 24.74
2212 ; 0.00
2216 ; 114.62
2220 ; 22.72
2224 ; 174.96
2228 ; 94.05
2232 ; 42.83
2236 ; 19.61
2240 ; 113.63
2244 ; 234.23
2248 ; 164.62
2252 ; 21.64
2256 ; 34.56
2260 ; 10.04
2264 ; 50.31
2268 ; 126.91
2272 ; 0.00
2276 ; 163.36
2280 ; 18.90
2284 ; 176.49
2288 ; 285.23
2292 ; 120.15
2296 ; 185.19
2300 ; 202.68
2304 ; 1.77
2308 ; 34.05
2312 ; 134.12
2316 ; 191.90
2320 ; 112.17
2324 ; 0.00
2328 ; 54.94
2332 ; 166.24
2336 ; 83.76
2340 ; 93.00
2344 ; 43.74
2348 ; 212.33
2352 ; 209.78
2356 ; 182.78
2360 ; 66.60
2364 ; 0.00
2368 ; 149.33
2372 ; 122.76
2376 ; 0.00
2380 ; 117.55
2384 ; 66.98
2388 ; 6.24
2392 ; 216.01
2396 ; 72.40
2400 ; 142.71
2404 ; 79.47
2408 ; 106.20
2412 ; 0.00
2416 ; 0.00
2420 ; 86.40
2424 ; 8.10
2428 ; 195.65
2432 ; 158.96
2436 ; 0.00
2440 ; 200.88
2444 ; 140.38
2448 ; 128.08
2452 ; 10.65
2456 ; 56.34
2460 ; 0.00
2464 ; 3.66
2468 ; 0.00
2472 ; 50.84
2476 ; 105.21
2480 ; 63.96
2484 ; 61.88
2488 ; 110.22
2492 ; 0.00
2496 ; 13.06
2500 ; 37.77
